*M. R. Querry, D. M. Wieliczka, D. J. Segelstein, "Water (H2O)," Handbook of Optical Constants of Solids II, , 1059-1077 (1991). 
* 
* lambda	 absorption
*  (nm) 	   (1/cm)   
418.6	 0.000466
421.9	 0.000447
425.2	 0.000442
428.4	 0.000449
431.7	 0.000465
434.9	 0.000455
438.2	 0.000452
441.5	 0.000464
444.7	 0.000466
448	 0.000443
450.4	 0.000374
453.5	 0.000399
455.9	 0.000412
458.3	 0.00037
460.6	 0.00035
463	 0.000342
465.4	 0.000337
468.3	 0.000376
470.7	 0.000375
473	 0.000392
475	 0.000359
477.3	 0.000371
479.6	 0.000372
481.8	 0.00037
484.2	 0.000366
486.6	 0.000367
489	 0.000366
491.4	 0.000367
493.8	 0.000373
495.7	 0.000413
497.9	 0.000437
500.3	 0.000452
502.5	 0.00048
504.8	 0.000481
507.2	 0.000519
509.5	 0.000544
511.8	 0.000587
514.2	 0.000599
516.6	 0.000649
518.9	 0.000643
521.2	 0.000646
523.6	 0.000652
525.9	 0.000621
528.2	 0.000632
530.4	 0.000636
532.8	 0.000647
535	 0.000676
536.6	 0.000667
538.2	 0.000677
539.7	 0.000724
541.2	 0.000696
542.8	 0.000711
544.3	 0.000709
545.8	 0.000701
547.8	 0.000737
550.1	 0.000762
552.4	 0.000784
554.5	 0.000798
556.8	 0.000807
559	 0.000816
561.2	 0.000828
563.4	 0.000843
565.6	 0.00086
567.7	 0.000879
570	 0.000892
580.3	 0.001072
582.5	 0.001126
584.6	 0.001209
586.8	 0.001311
588.3	 0.001422
591	 0.00155
593.2	 0.001686
595.4	 0.001852
597.5	 0.002074
599.7	 0.002361
601.9	 0.002628
604	 0.002787
606.2	 0.002854
609.1	 0.002902
611.2	 0.002929
613.3	 0.002949
615.5	 0.002975
617.6	 0.003
619.7	 0.003018
621.8	 0.003041
623.9	 0.003067
626.1	 0.003101
628.2	 0.00313
630.3	 0.003154
632.4	 0.003191
634.5	 0.003215
636.7	 0.003254
638.9	 0.003274
640.3	 0.003302
